Wavelength [nm]	MV4_03 [%]	MV4_02 [%]	MV4_01 [%]	MV3_03 [%]	MV3_02 [%]	MV3_01 [%]	MV2_02 [%]	MV2_01 [%]	MV1_02 [%]	MV1_01 [%]
300	34.31449	39.75804	46.90783	29.36498	46.90783	36.0352	53.13874	50.28827	30.39261	31.20269
310	35.62737	41.56577	46.97621	29.0097	46.97621	35.69816	52.94548	50.18843	31.57451	32.44421
320	36.87325	43.26577	47.08646	28.69253	47.08646	35.34206	52.76837	50.11309	32.67798	33.59287
330	38.05214	44.85803	47.2386	28.41345	47.2386	34.96691	52.60739	50.06224	33.70302	34.64867
340	39.16403	46.34255	47.43262	28.17247	47.43262	34.5727	52.46256	50.0359	34.64963	35.61161
350	40.20893	47.71934	47.66853	27.96958	47.66853	34.15944	52.33386	50.03406	35.51781	36.48169
360	41.18683	48.9884	47.94632	27.8048	47.94632	33.72713	52.22131	50.05672	36.30755	37.25891
370	42.09774	50.14972	48.266	27.67811	48.266	33.27576	52.12489	50.10388	37.01886	37.94327
380	42.94165	51.20331	48.62756	27.58952	48.62756	32.80533	52.04462	50.17555	37.65174	38.53477
390	43.71857	52.14917	49.03101	27.53902	49.03101	32.31586	51.98049	50.27171	38.20619	39.03341
400	44.42849	52.98729	49.47634	27.52663	49.47634	31.80733	51.93249	50.39237	38.6822	39.43919
410	44.53527	53.11229	50.39072	27.67215	50.39072	31.26596	52.20015	50.88833	38.41587	39.09393
420	44.39949	53.10971	51.38649	27.90039	51.38649	30.80665	52.55578	51.46931	38.06567	38.62528
430	44.52077	53.14703	52.08698	27.98559	52.08698	30.11862	52.57687	51.74018	37.81179	38.19408
440	45.26787	53.53446	52.67535	28.05234	52.67535	29.32302	52.47321	51.8804	37.94243	38.07489
450	46.22184	54.4243	53.18125	28.12855	53.18125	28.48199	52.29501	51.92346	38.60995	38.44701
460	47.13211	55.41886	53.59579	28.21496	53.59579	27.55491	52.03358	51.86828	39.51581	39.32237
470	47.77912	56.03173	53.93043	28.34879	53.93043	26.74509	51.76694	51.75761	39.97108	39.73123
480	48.16746	56.30017	54.11458	28.58942	54.11458	26.08832	51.44067	51.54271	40.09798	39.80298
490	48.77811	56.88398	54.67854	28.96379	54.67854	25.94565	51.68461	51.80603	40.48681	40.1889
500	49.38799	57.49286	55.22146	29.34401	55.22146	26.15691	51.94057	52.0883	40.89783	40.59103
510	50.00578	58.10127	55.79099	29.7341	55.79099	26.53489	52.19687	52.3514	41.29944	40.96748
520	50.60185	58.67311	56.31744	30.10391	56.31744	26.87325	52.41207	52.58468	41.68433	41.33595
530	51.1401	59.19838	56.78776	30.44756	56.78776	27.02475	52.56939	52.78057	42.04497	41.68079
540	51.65849	59.70085	57.23114	30.76456	57.23114	27.20778	52.81536	52.96622	42.39135	42.00524
550	52.17673	60.20892	57.685	31.05982	57.685	27.37967	53.0204	53.15919	42.72683	42.31316
560	52.70911	60.73553	58.18612	31.37503	58.18612	27.86483	53.32225	53.43312	43.08367	42.63756
570	53.17573	61.1932	58.61358	31.60505	58.61358	28.19431	53.50805	53.59736	43.38784	42.89939
580	53.56362	61.54424	58.90876	31.71751	58.90876	27.94401	53.53206	53.62746	43.61903	43.06853
590	53.85625	61.79998	59.11613	31.79138	59.11613	27.51024	53.50783	53.6117	43.77568	43.18112
600	54.11821	62.05613	59.34865	31.92686	59.34865	27.69395	53.65936	53.73078	43.93945	43.33029
610	54.32302	62.25615	59.53089	32.02739	59.53089	28.08066	53.73633	53.81889	44.07568	43.44135
620	54.466	62.40014	59.63986	32.06849	59.63986	28.2394	53.72365	53.82997	44.15555	43.50557
630	54.58284	62.50017	59.70741	32.06862	59.70741	28.20254	53.60554	53.78039	44.19775	43.52765
640	54.66428	62.59718	59.756	32.03465	59.756	28.04656	53.48253	53.67143	44.20771	43.52064
650	54.73302	62.67456	59.76897	31.97346	59.76897	27.52382	53.41079	53.52023	44.17653	43.49834
660	54.78947	62.72803	59.76732	31.92119	59.76732	26.45954	53.16857	53.32807	44.12114	43.45744
670	54.87898	62.83011	59.78495	31.83376	59.78495	25.83761	52.85015	53.16021	44.05991	43.42265
680	54.96509	62.91811	59.79402	31.79552	59.79402	25.52118	52.54982	52.97363	43.99456	43.37774
690	55.02201	62.98792	59.77221	31.70747	59.77221	25.43524	52.35146	52.75999	43.94093	43.32244
700	55.09242	62.99592	59.68657	31.57291	59.68657	25.61401	52.17408	52.43506	43.86446	43.21666
710	55.16373	63.00946	59.6094	31.50958	59.6094	25.92472	52.02947	52.14857	43.71553	43.15093
720	55.27557	62.99251	59.49141	31.39155	59.49141	26.38518	51.66261	51.87984	43.62299	43.04832
730	55.29078	62.94696	59.33164	31.20592	59.33164	26.9996	51.08774	51.60423	43.43695	42.86402
740	55.18787	62.90151	59.15488	30.99504	59.15488	27.77417	50.38922	51.25582	43.20528	42.64866
750	55.00276	62.85312	58.96986	30.77658	58.96986	28.62181	49.66507	50.6558	42.96101	42.42868
760	54.77804	62.81835	58.78697	30.5732	58.78697	29.56344	49.02456	49.98568	42.74426	42.24317
770	54.59246	62.82832	58.61326	30.40227	58.61326	30.4904	48.62153	49.481	42.59793	42.17341
780	54.48591	62.87991	58.45485	30.29175	58.45485	31.27285	48.42684	49.18147	42.6015	42.22276
790	54.45019	62.98884	58.34008	30.31664	58.34008	32.23088	48.47343	49.08199	42.73793	42.39781
800	54.49769	63.12984	58.25704	30.47793	58.25704	33.21463	48.68137	49.13011	43.00707	42.69577
810	54.56263	63.28064	58.20167	30.73108	58.20167	34.02391	48.95377	49.27699	43.34611	43.04186
820	54.66401	63.43866	58.20412	31.06277	58.20412	34.53307	49.35852	49.53415	43.75251	43.43767
830	54.8014	63.5889	58.2741	31.4599	58.2741	34.70244	49.84234	49.87188	44.20086	43.85082
840	54.95325	63.76996	58.40244	31.90785	58.40244	34.57133	50.46851	50.28321	44.65718	44.30034
850	55.14766	63.91517	58.5531	32.39008	58.5531	34.00288	51.07933	50.73499	45.12725	44.76333
860	55.30313	64.01426	58.70963	32.83832	58.70963	33.30487	51.5108	51.16478	45.55508	45.15675
870	55.43579	64.07383	58.81819	33.16953	58.81819	33.04237	51.91529	51.53155	45.89798	45.45359
880	55.50458	64.05963	58.89543	33.49036	58.89543	32.71281	52.38397	51.82684	46.13863	45.65483
890	55.52789	63.98554	58.9214	33.66801	58.9214	32.34017	52.78798	52.02824	46.28474	45.75853
900	55.55796	63.83676	58.90448	33.77617	58.90448	31.9505	52.99298	52.11787	46.27863	45.74276
910	55.51679	63.69272	58.89226	33.83517	58.89226	31.549	52.94833	52.19463	46.13357	45.66223
920	55.40706	63.49839	58.81193	33.71684	58.81193	31.18004	52.53413	52.11984	45.90383	45.41867
930	55.11988	63.30995	58.73132	33.51422	58.73132	30.82705	51.98148	51.89268	45.48324	45.0746
940	54.76732	63.13139	58.62764	33.25604	58.62764	30.49837	51.38484	51.436	45.0312	44.7049
950	54.41015	62.97013	58.49865	32.98793	58.49865	30.20951	50.84458	50.80472	44.55074	44.35601
960	54.09001	62.83069	58.37449	32.71568	58.37449	30.01484	50.41872	50.33488	44.10271	44.07702
970	53.87388	62.76303	58.25293	32.46339	58.25293	29.81312	50.15018	50.07727	43.76906	43.89516
980	53.73761	62.7453	58.13542	32.28863	58.13542	29.67436	49.91559	49.87457	43.50677	43.78499
990	53.63677	62.74517	58.02208	32.21132	58.02208	29.60859	49.72284	49.68755	43.29736	43.73036
1000	53.54503	62.74279	57.93122	32.18197	57.93122	29.58342	49.56076	49.53769	43.12732	43.72472
1010	53.45981	62.78317	57.88605	32.19391	57.88605	29.60573	49.42664	49.42652	42.97979	43.7083
1020	53.42556	62.8381	57.86582	32.23743	57.86582	29.66563	49.31672	49.36073	42.88827	43.73462
1030	53.40906	62.89999	57.87802	32.34408	57.87802	29.7301	49.22067	49.29552	42.8176	43.78907
1040	53.4004	62.97238	57.88782	32.47046	57.88782	29.84832	49.14347	49.24223	42.76698	43.87678
1050	53.36686	63.00401	57.86827	32.58199	57.86827	29.94616	49.02445	49.1612	42.71372	43.9406
1060	53.27316	62.98943	57.80972	32.62583	57.80972	30.00602	48.88776	49.04608	42.62049	43.96045
1070	53.172	62.97839	57.74658	32.67434	57.74658	30.05394	48.75498	48.92265	42.52932	43.95431
1080	53.05786	62.97764	57.6706	32.73848	57.6706	30.09737	48.61639	48.81676	42.44693	43.9605
1090	52.94603	62.96636	57.59498	32.80089	57.59498	30.15053	48.47237	48.7107	42.38829	43.97027
1100	52.83552	62.94089	57.5206	32.84845	57.5206	30.214	48.34641	48.59274	42.31649	43.95911
1110	52.69321	62.92791	57.42743	32.91123	57.42743	30.25733	48.19934	48.46539	42.24614	43.96224
1120	52.57829	62.91603	57.34047	32.97067	57.34047	30.33142	48.07915	48.35429	42.16834	43.95405
1130	52.47125	62.92714	57.29848	33.04483	57.29848	30.3827	47.95431	48.25114	42.12619	43.96631
1140	52.38075	62.92322	57.22166	33.12053	57.22166	30.45873	47.82621	48.13538	42.08849	43.96908
1150	52.28589	62.9256	57.16508	33.1967	57.16508	30.50344	47.69079	48.01536	42.02032	43.98773
1160	52.19775	62.94886	57.13853	33.26898	57.13853	30.59184	47.57911	47.91208	41.98696	44.00957
1170	52.15821	63.01321	57.10325	33.36877	57.10325	30.68426	47.47137	47.82476	41.96897	44.05378
1180	52.13116	63.06306	57.08688	33.45735	57.08688	30.76698	47.37178	47.72216	41.91161	44.08889
1190	52.07258	63.08334	57.06542	33.4991	57.06542	30.83644	47.25411	47.5973	41.8953	44.0849
1200	52.00362	63.1289	57.056	33.53697	57.056	30.88627	47.15699	47.48132	41.83635	44.06607
1210	52.01847	63.25381	57.10132	33.70803	57.10132	31.01396	47.12961	47.44288	41.80615	44.12163
1220	52.09527	63.37648	57.17754	33.88697	57.17754	31.20536	47.10071	47.42093	41.85557	44.24368
1230	52.13555	63.4531	57.22418	34.0159	57.22418	31.33494	47.01955	47.30499	41.88238	44.30642
1240	52.15923	63.52765	57.26134	34.12795	57.26134	31.43813	46.93567	47.19149	41.85609	44.3288
1250	52.17793	63.6175	57.3011	34.23223	57.3011	31.55595	46.85204	47.08668	41.82268	44.35611
1260	52.21517	63.68925	57.35741	34.30777	57.35741	31.66048	46.75497	46.97239	41.79784	44.35068
1270	52.23495	63.74491	57.36794	34.39024	57.36794	31.74467	46.64104	46.81745	41.76692	44.3146
1280	52.18414	63.75289	57.29087	34.44745	57.29087	31.80814	46.49598	46.67413	41.71856	44.28191
1290	52.07165	63.69718	57.16355	34.4975	57.16355	31.88211	46.34425	46.50257	41.67413	44.25343
1300	51.87808	63.56837	56.94854	34.5498	56.94854	31.95058	46.17154	46.29401	41.62266	44.20587
1310	51.59853	63.36672	56.62515	34.58081	56.62515	31.9941	45.92581	46.04039	41.57467	44.14609
1320	51.23577	63.09988	56.2291	34.59848	56.2291	32.04761	45.67967	45.75169	41.47811	44.06985
1330	50.80478	62.77977	55.78843	34.60553	55.78843	32.07806	45.3873	45.44388	41.39572	44.00248
1340	50.28707	62.38863	55.24636	34.59159	55.24636	32.11173	45.04157	45.10303	41.2912	43.89162
1350	49.687	61.94628	54.64385	34.62348	54.64385	32.14025	44.7031	44.74829	41.12791	43.79119
1360	49.08028	61.54245	54.07475	34.6983	54.07475	32.25138	44.43269	44.44641	40.99631	43.74634
1370	48.56482	61.20526	53.55834	34.76707	53.55834	32.33418	44.15103	44.16918	40.91016	43.72778
1380	48.0552	60.85035	53.07974	34.7778	53.07974	32.39273	43.86068	43.87066	40.82222	43.64565
1390	47.54955	60.52288	52.61182	34.78971	52.61182	32.42898	43.56854	43.55152	40.71624	43.55126
1400	47.12336	60.27325	52.2252	34.86708	52.2252	32.50417	43.33708	43.28197	40.578	43.4939
1410	46.83745	60.1067	51.9632	35.00261	51.9632	32.65453	43.1723	43.0989	40.49112	43.49975
1420	46.64116	59.977	51.78441	35.06847	51.78441	32.77995	42.9819	42.88481	40.44294	43.47356
1430	46.48767	59.90789	51.65526	35.10316	51.65526	32.83522	42.78624	42.65624	40.33143	43.39022
1440	46.45885	59.93972	51.65067	35.18582	51.65067	32.90115	42.6403	42.50406	40.20615	43.31856
1450	46.53905	60.04645	51.73712	35.27723	51.73712	32.99083	42.5238	42.38543	40.10463	43.26926
1460	46.71276	60.19678	51.9001	35.35798	51.9001	33.05387	42.42991	42.27555	40.00964	43.20602
1470	46.92577	60.37106	52.08362	35.45663	52.08362	33.1303	42.36925	42.17924	39.92555	43.16614
1480	47.14248	60.55222	52.27044	35.56804	52.27044	33.23248	42.31528	42.12514	39.85933	43.1461
1490	47.36822	60.73221	52.46965	35.70476	52.46965	33.36316	42.2715	42.06563	39.80576	43.143
1500	47.58081	60.90019	52.64255	35.83999	52.64255	33.4793	42.19945	42.0036	39.7564	43.11345
1510	47.77151	61.04227	52.78322	35.95294	52.78322	33.59168	42.1028	41.92311	39.69898	43.08972
1520	47.91107	61.16033	52.88406	36.08498	52.88406	33.70623	42.02623	41.84362	39.60893	43.07517
1530	48.04143	61.25207	52.97106	36.22147	52.97106	33.82564	41.93504	41.77302	39.54229	43.06204
1540	48.12228	61.31494	53.01986	36.39332	53.01986	33.97673	41.85901	41.69572	39.46073	43.05513
1550	48.19694	61.38872	53.07601	36.6405	53.07601	34.1767	41.85346	41.66663	39.39231	43.11855
1560	48.31689	61.49457	53.17481	36.82646	53.17481	34.39538	41.83805	41.65202	39.38228	43.19372
1570	48.40792	61.59868	53.24017	36.97538	53.24017	34.54473	41.77171	41.5992	39.40763	43.22194
1580	48.41691	61.61716	53.23692	37.11205	53.23692	34.71538	41.67999	41.49951	39.37264	43.2032
1590	48.39055	61.62247	53.22495	37.27379	53.22495	34.84204	41.6272	41.41313	39.30136	43.20822
1600	48.35932	61.65985	53.21151	37.47159	53.21151	35.00658	41.57541	41.34648	39.26616	43.24369
1610	48.35693	61.69736	53.22437	37.68076	53.22437	35.20024	41.55385	41.31934	39.25243	43.32118
1620	48.35247	61.71326	53.21042	37.90442	53.21042	35.42547	41.52966	41.29215	39.25778	43.40895
1630	48.30793	61.72169	53.19134	38.12971	53.19134	35.6685	41.51646	41.28236	39.27168	43.52289
1640	48.24494	61.68238	53.14464	38.32718	53.14464	35.8773	41.45326	41.23123	39.30021	43.6057
1650	48.11744	61.62257	53.05119	38.47926	53.05119	36.03221	41.36725	41.15075	39.30256	43.64481
1660	47.96646	61.51663	52.91862	38.60625	52.91862	36.16284	41.26401	41.01574	39.29123	43.66432
1670	47.7834	61.36578	52.74499	38.68336	52.74499	36.2548	41.11549	40.85969	39.24115	43.67395
1680	47.55293	61.17606	52.51804	38.73892	52.51804	36.33796	40.9342	40.668	39.17539	43.6257
1690	47.28453	60.98243	52.28211	38.7676	52.28211	36.39938	40.73976	40.49073	39.0595	43.58403
1700	46.96161	60.76491	51.98587	38.73286	51.98587	36.42828	40.47742	40.26383	38.92324	43.46245
1710	46.67232	60.57605	51.72657	38.75538	51.72657	36.42779	40.31053	40.05749	38.7447	43.38143
1720	46.40876	60.38313	51.46059	38.75291	51.46059	36.45406	40.13459	39.84184	38.56292	43.30972
1730	46.18072	60.23316	51.28556	38.81129	51.28556	36.45045	39.97118	39.65257	38.42029	43.23279
1740	46.04	60.1797	51.20176	38.95759	51.20176	36.50489	39.90252	39.55738	38.28028	43.22184
1750	46.06219	60.20087	51.18163	39.13643	51.18163	36.67384	39.84225	39.48396	38.1878	43.24574
1760	46.07468	60.13942	51.10047	39.20249	51.10047	36.87122	39.71221	39.40468	38.15957	43.17663
1770	45.94793	60.00326	50.91988	39.22845	50.91988	36.932	39.54648	39.22541	38.10963	43.05088
1780	45.60612	59.66578	50.51564	39.09675	50.51564	36.98024	39.20866	38.88315	37.94258	42.85781
1790	45.01375	59.14754	49.87105	38.90399	49.87105	36.80353	38.77761	38.44865	37.72649	42.62966
1800	44.24133	58.40559	49.00134	38.55765	49.00134	36.58571	38.24708	37.96346	37.47894	42.35794
1810	43.28179	57.48573	47.96712	38.2383	47.96712	36.33757	37.69905	37.47175	37.22583	42.12461
1820	42.13122	56.38295	46.7238	37.87601	46.7238	36.07888	37.15173	36.89528	36.9778	41.89338
1830	40.86285	55.20379	45.41688	37.48315	45.41688	35.78622	36.62408	36.31798	36.71484	41.70468
1840	39.54426	53.92983	44.04503	37.07455	44.04503	35.52146	36.07223	35.77168	36.50434	41.48928
1850	38.1698	52.6591	42.63747	36.65546	42.63747	35.22998	35.57033	35.20747	36.33813	41.31428
1860	36.86477	51.36141	41.28935	36.27796	41.28935	34.93508	35.08186	34.66282	36.18332	41.12491
1870	35.5906	50.15499	40.00011	35.93219	40.00011	34.65181	34.63269	34.16494	36.02462	41.00034
1880	34.43277	49.08759	38.86277	35.66521	38.86277	34.43772	34.24189	33.70754	35.91783	40.87016
1890	33.42327	48.23755	37.977	35.43813	37.977	34.26713	33.94878	33.42678	35.81913	40.788
1900	32.65514	47.63311	37.29482	35.33202	37.29482	34.17858	33.76988	33.17453	35.74369	40.7246
1910	32.22775	47.37557	36.94565	35.39224	36.94565	34.14899	33.76891	33.11369	35.68912	40.72977
1920	32.07643	47.39363	36.87542	35.54086	36.87542	34.25372	33.82793	33.11368	35.74368	40.81861
1930	32.2031	47.73601	37.15209	35.87176	37.15209	34.42445	33.99459	33.26094	35.81771	41.00069
1940	32.60821	48.30254	37.68991	36.27153	37.68991	34.73825	34.23637	33.5207	35.93727	41.21379
1950	33.28383	49.00188	38.37055	36.66427	38.37055	35.15151	34.47192	33.75765	36.05971	41.36434
1960	33.96075	49.72004	39.05616	36.93571	39.05616	35.45404	34.67026	33.96726	36.17287	41.44371
1970	34.5265	50.48481	39.65766	37.12828	39.65766	35.65076	34.79951	34.00307	36.1563	41.45852
1980	34.91607	51.0779	40.14275	37.21111	40.14275	35.79238	34.74151	33.98191	36.02946	41.39338
1990	35.32144	51.65944	40.6096	37.33898	40.6096	35.73558	34.71058	33.97835	35.8304	41.29187
2000	35.70535	52.13317	41.08516	37.47546	41.08516	35.75276	34.73392	33.97502	35.69135	41.34912
2010	36.08975	52.73577	41.56328	37.81356	41.56328	35.88161	34.8582	34.06295	35.5746	41.45622
2020	36.52851	53.36555	42.02901	38.10371	42.02901	36.15166	35.11571	34.17196	35.50571	41.61409
2030	36.99299	54.01935	42.5541	38.57008	42.5541	36.48686	35.39756	34.41925	35.55064	41.92067
2040	37.52238	54.51176	43.01124	38.92957	43.01124	36.93095	35.65337	34.69388	35.75052	42.20299
2050	37.99796	54.87604	43.37758	39.22412	43.37758	37.20728	35.96216	34.93209	35.99996	42.4837
2060	38.39422	55.02016	43.64261	39.51393	43.64261	37.41252	36.12858	35.10774	36.19948	42.62439
2070	38.66847	55.20398	43.82265	39.74676	43.82265	37.62362	36.26163	35.26942	36.40405	42.85499
2080	38.94788	55.20764	43.90919	39.96966	43.90919	37.82474	36.30785	35.41807	36.58484	42.94435
2090	39.04092	55.1816	43.93165	40.0405	43.93165	37.905	36.34637	35.56116	36.68528	42.99832
2100	39.05317	55.08589	43.79102	40.09574	43.79102	37.94389	36.36955	35.46782	36.73891	43.00227
2110	38.98763	54.93684	43.64144	40.10109	43.64144	37.87765	36.25703	35.43594	36.65046	42.92699
2120	38.81514	54.61375	43.30684	39.8997	43.30684	37.86488	35.98171	35.22469	36.66367	42.89184
2130	38.46304	54.2965	42.94208	39.79297	42.94208	37.7185	35.65662	34.92875	36.59419	42.74843
2140	38.01347	53.83497	42.42698	39.52	42.42698	37.41702	35.28466	34.62768	36.49361	42.41522
2150	37.61249	53.37356	41.91387	39.09377	41.91387	37.08768	34.78863	34.54607	36.24272	42.12784
2160	37.12273	52.99014	41.31685	38.73884	41.31685	36.77608	34.29526	34.25562	35.90366	41.75285
2170	36.65579	52.52925	40.7337	38.32397	40.7337	36.44267	33.70617	33.39879	35.49043	41.39955
2180	36.02358	51.92311	40.15986	37.91491	40.15986	35.93016	33.15623	32.42811	34.99384	40.92318
2190	35.53794	51.46985	39.74042	37.39117	39.74042	35.37801	32.82801	32.14374	34.55288	40.62856
2200	34.96014	51.09475	39.20735	36.92248	39.20735	35.13407	32.39094	31.62732	34.25351	40.48613
2210	34.47845	51.01161	38.87349	36.55864	38.87349	34.75583	31.9114	31.39171	33.79929	40.15672
2220	34.14788	50.95812	38.61386	36.46266	38.61386	34.57064	31.87049	31.18257	33.14768	39.91377
2230	33.91019	50.76944	38.46264	36.2604	38.46264	34.46114	31.96246	30.95676	32.83761	39.84423
2240	33.96465	50.59044	38.18056	36.12064	38.18056	34.19592	31.8049	30.65577	32.80997	39.71233
2250	33.871	50.57138	37.84286	36.15988	37.84286	34.16924	31.45088	30.82782	32.37258	39.59081
2260	33.44573	50.17904	37.25957	36.13176	37.25957	34.14008	31.25356	30.88978	32.43118	39.42737
2270	33.08694	50.40313	37.02274	36.35555	37.02274	34.06239	31.29378	30.84634	32.29354	39.6097
2280	33.26257	50.03479	36.76237	36.46892	36.76237	33.87836	31.32906	30.87776	32.32998	39.61911
2290	32.87473	49.38522	36.72989	36.55615	36.72989	33.82854	30.79216	30.96055	32.1426	39.78323
2300	32.71152	49.25441	36.31872	36.7483	36.31872	33.78572	30.65819	31.22047	32.09768	39.80283
2310	32.08664	48.89791	36.30625	36.8107	36.30625	33.49504	31.04184	31.57267	32.53121	40.04224
2320	32.12817	48.48587	35.72825	36.64084	35.72825	33.25898	31.16111	31.61246	33.12224	40.15202
2330	31.58992	47.83891	35.47787	36.92575	35.47787	33.19269	31.44498	31.62308	33.78649	39.97682
2340	30.53541	47.25569	34.56733	36.65158	34.56733	33.27655	31.1365	31.23439	33.65659	40.0082
2350	30.29922	46.87134	34.57288	36.64034	34.57288	33.08769	30.54315	30.91314	33.90268	40.13814
2360	29.56583	46.6501	33.13431	36.60121	33.13431	32.42963	30.77037	30.1153	33.83209	39.90724
2370	29.21466	46.37465	32.91975	35.96837	32.91975	32.19091	30.21387	29.75795	33.65634	39.76765
2380	29.32746	45.912	31.8674	35.40077	31.8674	31.76219	29.36849	29.38962	32.83628	39.61778
2390	28.80188	45.88972	31.52793	34.71664	31.52793	31.5057	28.7321	29.60739	32.53313	39.59698
2400	29.05323	45.8212	30.27591	34.31359	30.27591	32.06862	28.56079	29.38075	32.72192	39.74342
2410	28.99094	45.44612	29.68703	34.30083	29.68703	32.02555	28.45334	29.21853	32.58145	39.50416
2420	29.00045	45.0603	29.12656	34.38008	29.12656	32.00808	28.40301	29.07732	32.41669	39.21373
2430	29.08177	44.66374	28.59449	34.55135	28.59449	32.01621	28.40981	28.95714	32.22763	38.87211
2440	29.23489	44.25643	28.09082	34.81462	28.09082	32.04994	28.47374	28.85798	32.01429	38.47931
2450	29.45982	43.83837	27.61556	35.16991	27.61556	32.10927	28.59479	28.77983	31.77665	38.03533
2460	29.75655	43.40957	27.1687	35.61721	27.1687	32.19419	28.77297	28.72271	31.51472	37.54017
2470	30.12509	42.97003	26.75024	36.15652	26.75024	32.30472	29.00827	28.68661	31.2285	36.99383
2480	30.56543	42.51974	26.36019	36.78784	26.36019	32.44084	29.3007	28.67152	30.91798	36.39631
2490	31.07757	42.05871	25.99854	37.51117	25.99854	32.60256	29.65026	28.67746	30.58318	35.74761
2500	31.66152	41.58693	25.6653	38.32652	25.6653	32.78987	30.05694	28.70442	30.22408	35.04772
